# wavenumber (cm^-1)  VDOS (arb. units)   remove this line before running code
0 122.552
0.0636224 122.573
0.127245 122.636
0.190867 122.74
0.25449 122.886
0.318111 123.074
0.381734 123.303
0.445356 123.574
0.508979 123.886
0.572601 124.239
0.636224 124.635
0.699845 125.071
0.763467 125.549
0.82709 126.068
0.890711 126.628
0.954335 127.229
1.01796 127.87
1.08158 128.553
1.1452 129.276
1.20882 130.04
1.27245 130.844
1.33607 131.689
1.39969 132.573
1.46331 133.497
1.52694 134.461
1.59056 135.465
1.65418 136.508
1.7178 137.591
1.78143 138.712
1.84505 139.873
1.90867 141.072
1.97229 142.309
2.03591 143.585
2.09954 144.899
2.16316 146.25
2.22679 147.639
2.29039 149.066
2.35402 150.529
2.41764 152.03
2.48127 153.567
2.5449 155.14
2.60852 156.749
2.67215 158.394
2.73575 160.075
2.79938 161.791
2.863 163.541
2.92663 165.327
2.99025 167.147
3.05388 169
3.11748 170.888
3.18111 172.809
3.24473 174.763
3.30836 176.75
3.37199 178.769
3.43561 180.82
3.49922 182.904
3.56284 185.018
3.62647 187.164
3.69009 189.341
3.75372 191.548
3.81734 193.785
3.88097 196.052
3.94457 198.348
4.0082 200.673
4.07183 203.027
4.13545 205.409
4.19908 207.818
4.2627 210.256
4.32631 212.72
4.38993 215.212
4.45356 217.729
4.51718 220.273
4.58081 222.842
4.64443 225.437
4.70806 228.056
4.77166 230.699
4.83529 233.367
4.89892 236.058
4.96254 238.773
5.02617 241.51
5.08979 244.269
5.1534 247.051
5.21702 249.854
5.28065 252.679
5.34427 255.524
5.4079 258.389
5.47152 261.275
5.53515 264.18
5.59875 267.103
5.66238 270.046
5.72601 273.007
5.78963 275.986
5.85326 278.982
5.91688 281.996
5.98049 285.025
6.04411 288.071
6.10774 291.132
6.17136 294.21
6.23499 297.302
6.29861 300.408
6.36224 303.528
6.42584 306.663
6.48947 309.81
6.5531 312.97
6.61672 316.142
6.68035 319.326
6.74397 322.522
6.80758 325.729
6.8712 328.947
6.93483 332.175
6.99845 335.412
7.06208 338.66
7.1257 341.915
7.18933 345.181
7.25293 348.452
7.31656 351.733
7.38019 355.021
7.44381 358.315
7.50744 361.616
7.57106 364.923
7.63467 368.235
7.69829 371.553
7.76192 374.876
7.82554 378.202
7.88917 381.533
7.95279 384.866
8.01642 388.204
8.08002 391.545
8.14365 394.887
8.20728 398.23
8.2709 401.575
8.33453 404.923
8.39815 408.27
8.46176 411.617
8.52538 414.965
8.58901 418.31
8.65263 421.656
8.71626 425
8.77989 428.342
8.84351 431.681
8.90711 435.02
8.97074 438.354
9.03437 441.683
9.09799 445.011
9.16162 448.334
9.22524 451.651
9.28885 454.964
9.35247 458.271
9.4161 461.571
9.47972 464.868
9.54335 468.156
9.60698 471.436
9.6706 474.709
9.7342 477.976
9.79783 481.233
9.86146 484.481
9.92508 487.72
9.98871 490.951
10.0523 494.17
10.1159 497.38
10.1796 500.579
10.2432 503.766
10.3068 506.943
10.3704 510.107
10.4341 513.26
10.4977 516.399
10.5613 519.526
10.6249 522.638
10.6885 525.737
10.7522 528.821
10.8158 531.892
10.8794 534.946
10.943 537.985
11.0067 541.009
11.0703 544.016
11.1339 547.007
11.1975 549.98
11.2612 552.937
11.3248 555.874
11.3884 558.795
11.452 561.697
11.5156 564.579
11.5793 567.443
11.6429 570.286
11.7065 573.109
11.7701 575.911
11.8337 578.694
11.8974 581.454
11.961 584.193
12.0246 586.91
12.0882 589.605
12.1518 592.276
12.2155 594.924
12.2791 597.548
12.3427 600.149
12.4064 602.725
12.47 605.276
12.5336 607.804
12.5972 610.303
12.6608 612.778
12.7245 615.228
12.7881 617.65
12.8517 620.044
12.9153 622.413
12.9789 624.752
13.0426 627.066
13.1062 629.349
13.1698 631.604
13.2334 633.83
13.2971 636.026
13.3607 638.193
13.4243 640.33
13.4879 642.435
13.5515 644.51
13.6152 646.553
13.6788 648.564
13.7424 650.545
13.806 652.493
13.8697 654.408
13.9333 656.291
13.9969 658.14
14.0605 659.955
14.1242 661.737
14.1878 663.484
14.2514 665.197
14.315 666.875
14.3786 668.518
14.4423 670.126
14.5059 671.699
14.5695 673.234
14.6331 674.734
14.6967 676.197
14.7604 677.624
14.824 679.013
14.8876 680.364
14.9512 681.68
15.0149 682.956
15.0785 684.194
15.1421 685.394
15.2057 686.556
15.2694 687.677
15.333 688.762
15.3966 689.805
15.4602 690.811
15.5238 691.776
15.5875 692.701
15.6511 693.586
15.7147 694.432
15.7783 695.236
15.842 696
15.9056 696.723
15.9692 697.405
16.0328 698.046
16.0964 698.647
16.1601 699.204
16.2237 699.723
16.2873 700.199
16.3509 700.631
16.4146 701.025
16.4782 701.375
16.5418 701.684
16.6054 701.951
16.669 702.174
16.7327 702.357
16.7963 702.496
16.8599 702.596
16.9235 702.65
16.9872 702.665
17.0508 702.636
17.1144 702.566
17.178 702.452
17.2416 702.297
17.3053 702.1
17.3689 701.861
17.4325 701.579
17.4961 701.256
17.5597 700.889
17.6234 700.484
17.687 700.033
17.7506 699.544
17.8143 699.012
17.8779 698.438
17.9415 697.824
18.0051 697.169
18.0687 696.473
18.1324 695.735
18.196 694.957
18.2596 694.14
18.3232 693.281
18.3868 692.384
18.4505 691.447
18.5141 690.47
18.5777 689.454
18.6413 688.398
18.705 687.304
18.7686 686.172
18.8322 685.002
18.8958 683.795
18.9594 682.548
19.0231 681.267
19.0867 679.948
19.1503 678.593
19.2139 677.201
19.2776 675.774
19.3412 674.311
19.4048 672.814
19.4684 671.283
19.5321 669.716
19.5957 668.116
19.6593 666.485
19.7229 664.818
19.7865 663.121
19.8502 661.392
19.9138 659.63
19.9774 657.838
20.041 656.017
20.1046 654.165
20.1683 652.284
20.2319 650.373
20.2955 648.436
20.3591 646.47
20.4228 644.476
20.4864 642.456
20.55 640.41
20.6136 638.339
20.6773 636.242
20.7409 634.121
20.8045 631.976
20.8681 629.808
20.9317 627.618
20.9954 625.408
21.059 623.174
21.1226 620.92
21.1862 618.646
21.2498 616.352
21.3135 614.039
21.3771 611.709
21.4407 609.363
21.5043 606.999
21.568 604.618
21.6316 602.221
21.6952 599.812
21.7588 597.387
21.8225 594.949
21.8861 592.499
21.9497 590.037
22.0133 587.563
22.077 585.079
22.1406 582.584
22.2042 580.081
22.2679 577.569
22.3313 575.05
22.395 572.523
22.4586 569.991
22.5223 567.453
22.5859 564.91
22.6496 562.362
22.7132 559.81
22.7769 557.258
22.8405 554.701
22.9039 552.144
22.9676 549.587
23.0312 547.029
23.0949 544.472
23.1585 541.915
23.2222 539.363
23.2858 536.813
23.3495 534.265
23.4131 531.723
23.4765 529.185
23.5402 526.652
23.6038 524.127
23.6675 521.608
23.7311 519.096
23.7948 516.593
23.8584 514.099
23.9221 511.615
23.9855 509.14
24.0492 506.676
24.1128 504.225
24.1764 501.785
24.2401 499.357
24.3037 496.943
24.3674 494.544
24.431 492.159
24.4947 489.788
24.5581 487.435
24.6218 485.097
24.6854 482.775
24.7491 480.473
24.8127 478.188
24.8764 475.921
24.94 473.673
25.0036 471.445
25.0673 469.238
25.1307 467.05
25.1944 464.883
25.258 462.74
25.3217 460.618
25.3853 458.519
25.449 456.442
25.5126 454.388
25.5763 452.359
25.6397 450.354
25.7033 448.374
25.767 446.419
25.8306 444.49
25.8943 442.586
25.9579 440.71
26.0216 438.86
26.0852 437.036
26.1489 435.24
26.2123 433.471
26.2759 431.732
26.3396 430.02
26.4032 428.336
26.4669 426.682
26.5305 425.057
26.5942 423.46
26.6578 421.895
26.7215 420.358
26.7849 418.852
26.8486 417.375
26.9122 415.931
26.9758 414.517
27.0395 413.133
27.1031 411.78
27.1668 410.459
27.2304 409.169
27.2939 407.91
27.3575 406.682
27.4212 405.488
27.4848 404.324
27.5485 403.193
27.6121 402.093
27.6758 401.026
27.7394 399.991
27.803 398.987
27.8665 398.017
27.9301 397.078
27.9938 396.171
28.0574 395.296
28.1211 394.454
28.1847 393.645
28.2484 392.868
28.312 392.122
28.3757 391.409
28.4391 390.728
28.5027 390.08
28.5664 389.462
28.63 388.877
28.6937 388.324
28.7573 387.803
28.821 387.313
28.8846 386.855
28.948 386.428
29.0117 386.033
29.0753 385.668
29.139 385.335
29.2026 385.033
29.2663 384.762
29.3299 384.521
29.3936 384.311
29.4572 384.129
29.5207 383.98
29.5843 383.86
29.6479 383.769
29.7116 383.709
29.7752 383.678
29.8389 383.676
29.9025 383.704
29.9662 383.76
30.0298 383.844
30.0933 383.958
30.1569 384.099
30.2206 384.269
30.2842 384.466
30.3479 384.69
30.4115 384.943
30.4751 385.222
30.5388 385.528
30.6022 385.861
30.6659 386.22
30.7295 386.607
30.7932 387.018
30.8568 387.455
30.9205 387.919
30.9841 388.407
31.0478 388.921
31.1114 389.459
31.1748 390.022
31.2385 390.61
31.3021 391.221
31.3658 391.857
31.4294 392.516
31.4931 393.199
31.5567 393.905
31.6204 394.633
31.684 395.386
31.7474 396.161
31.8111 396.957
31.8747 397.777
31.9384 398.618
32.002 399.48
32.0657 400.363
32.1293 401.27
32.193 402.196
32.2564 403.143
32.3201 404.111
32.3837 405.099
32.4473 406.107
32.511 407.136
32.5746 408.185
32.6383 409.253
32.7019 410.34
32.7656 411.448
32.829 412.573
32.8927 413.718
32.9563 414.882
33.02 416.063
33.0836 417.263
33.1473 418.482
33.2109 419.719
33.2745 420.972
33.338 422.245
33.4016 423.533
33.4653 424.84
33.5289 426.164
33.5926 427.506
33.6562 428.863
33.7199 430.238
33.7835 431.628
33.8472 433.036
33.9106 434.458
33.9742 435.898
34.0379 437.354
34.1015 438.825
34.1652 440.312
34.2288 441.815
34.2925 443.334
34.3561 444.865
34.4198 446.416
34.4832 447.978
34.5468 449.555
34.6105 451.149
34.6741 452.757
34.7378 454.378
34.8014 456.014
34.8651 457.665
34.9287 459.33
34.9922 461.008
35.0558 462.699
35.1195 464.405
35.1831 466.124
35.2467 467.856
35.3104 469.601
35.374 471.361
35.4377 473.132
35.5013 474.917
35.5648 476.713
35.6284 478.524
35.6921 480.346
35.7557 482.18
35.8194 484.027
35.883 485.884
35.9467 487.754
36.0103 489.636
36.0739 491.528
36.1374 493.432
36.201 495.347
36.2647 497.273
36.3283 499.21
36.392 501.157
36.4556 503.114
36.5193 505.081
36.5829 507.059
36.6463 509.047
36.71 511.044
36.7736 513.049
36.8373 515.064
36.9009 517.088
36.9646 519.12
37.0282 521.162
37.0919 523.21
37.1555 525.266
37.2189 527.331
37.2826 529.403
37.3462 531.482
37.4099 533.566
37.4735 535.66
37.5372 537.758
37.6008 539.86
37.6645 541.971
37.7281 544.085
37.7916 546.206
37.8552 548.33
37.9189 550.461
37.9825 552.592
38.0461 554.729
38.1098 556.869
38.1734 559.011
38.2371 561.156
38.3005 563.304
38.3642 565.453
38.4278 567.603
38.4915 569.755
38.5551 571.907
38.6188 574.06
38.6824 576.21
38.7461 578.362
38.8097 580.512
38.8731 582.66
38.9368 584.807
39.0004 586.949
39.0641 589.089
39.1277 591.227
39.1914 593.361
39.255 595.489
39.3187 597.612
39.3823 599.73
39.4457 601.842
39.5094 603.947
39.573 606.046
39.6367 608.138
39.7003 610.219
39.764 612.293
39.8276 614.358
39.8913 616.413
39.9547 618.458
40.0183 620.492
40.082 622.514
40.1456 624.523
40.2093 626.521
40.2729 628.505
40.3366 630.475
40.4002 632.431
40.4639 634.371
40.5273 636.297
40.591 638.205
40.6546 640.098
40.7183 641.971
40.7819 643.827
40.8455 645.666
40.9092 647.484
40.9728 649.282
41.0365 651.059
41.0999 652.815
41.1636 654.551
41.2272 656.262
41.2909 657.952
41.3545 659.616
41.4182 661.258
41.4818 662.873
41.5455 664.464
41.6089 666.027
41.6725 667.564
41.7362 669.074
41.7998 670.557
41.8635 672.01
41.9271 673.433
41.9908 674.827
42.0544 676.19
42.1181 677.523
42.1815 678.823
42.2451 680.091
42.3088 681.327
42.3724 682.53
42.4361 683.697
42.4997 684.83
42.5634 685.929
42.627 686.991
42.6907 688.017
42.7541 689.007
42.8177 689.959
42.8814 690.874
42.945 691.75
43.0087 692.587
43.0723 693.386
43.136 694.143
43.1996 694.862
43.2631 695.539
43.3267 696.174
43.3904 696.769
43.454 697.322
43.5176 697.831
43.5813 698.299
43.6449 698.722
43.7086 699.103
43.7722 699.439
43.8357 699.731
43.8993 699.977
43.963 700.18
44.0266 700.337
44.0903 700.447
44.1539 700.512
44.2176 700.531
44.2812 700.504
44.3448 700.429
44.4083 700.308
44.4719 700.14
44.5356 699.923
44.5992 699.66
44.6629 699.349
44.7265 698.99
44.7902 698.584
44.8538 698.128
44.9172 697.624
44.9809 697.073
45.0445 696.474
45.1082 695.825
45.1718 695.128
45.2355 694.383
45.2991 693.588
45.3628 692.746
45.4264 691.857
45.4898 690.917
45.5535 689.93
45.6171 688.894
45.6808 687.81
45.7444 686.678
45.8081 685.498
45.8717 684.272
45.9354 682.995
45.999 681.674
46.0625 680.304
46.1261 678.888
46.1898 677.424
46.2534 675.915
46.317 674.358
46.3807 672.756
46.4443 671.109
46.508 669.415
46.5714 667.678
46.6351 665.895
46.6987 664.068
46.7624 662.198
46.826 660.283
46.8897 658.326
46.9533 656.326
47.017 654.282
47.0806 652.199
47.144 650.074
47.2077 647.906
47.2713 645.7
47.335 643.453
47.3986 641.168
47.4623 638.842
47.5259 636.48
47.5896 634.079
47.6532 631.641
47.7166 629.167
47.7803 626.657
47.8439 624.112
47.9076 621.531
47.9712 618.917
48.0349 616.27
48.0985 613.589
48.1622 610.876
48.2256 608.132
48.2892 605.357
48.3529 602.551
48.4165 599.717
48.4802 596.853
48.5438 593.963
48.6075 591.043
48.6711 588.099
48.7348 585.128
48.7982 582.132
48.8619 579.112
48.9255 576.068
48.9892 573
49.0528 569.912
49.1164 566.802
49.1801 563.671
49.2437 560.521
49.3074 557.351
49.3708 554.163
49.4345 550.958
49.4981 547.736
49.5618 544.498
49.6254 541.246
49.6891 537.978
49.7527 534.697
49.8164 531.404
49.8798 528.098
49.9434 524.782
50.0071 521.455
50.0707 518.119
50.1344 514.774
50.198 511.42
50.2617 508.059
50.3253 504.693
50.389 501.319
50.4524 497.942
50.516 494.559
50.5797 491.175
50.6433 487.788
50.707 484.397
50.7706 481.006
50.8343 477.615
50.8979 474.225
50.9616 470.836
51.025 467.448
51.0886 464.064
51.1523 460.682
51.2159 457.304
51.2796 453.931
51.3432 450.565
51.4069 447.204
51.4705 443.85
51.534 440.503
51.5976 437.165
51.6613 433.836
51.7249 430.516
51.7886 427.207
51.8522 423.909
51.9158 420.622
51.9795 417.348
52.0431 414.086
52.1066 410.837
52.1702 407.603
52.2339 404.383
52.2975 401.179
52.3612 397.991
52.4248 394.818
52.4885 391.663
52.5521 388.525
52.6158 385.406
52.6792 382.306
52.7428 379.224
52.8065 376.163
52.8701 373.121
52.9338 370.1
52.9974 367.101
53.0611 364.123
53.1247 361.168
53.1881 358.235
53.2518 355.324
53.3154 352.439
53.3791 349.577
53.4427 346.74
53.5064 343.927
53.57 341.139
53.6337 338.378
53.6973 335.643
53.7607 332.935
53.8244 330.253
53.888 327.599
53.9517 324.972
54.0153 322.375
54.079 319.805
54.1426 317.264
54.2063 314.752
54.2699 312.27
54.3334 309.818
54.397 307.396
54.4607 305.005
54.5243 302.645
54.5879 300.315
54.6516 298.018
54.7152 295.752
54.7789 293.518
54.8423 291.317
54.906 289.148
54.9696 287.013
55.0333 284.91
55.0969 282.841
55.1606 280.806
55.2242 278.806
55.2879 276.839
55.3515 274.907
55.4149 273.01
55.4786 271.148
55.5422 269.321
55.6059 267.53
55.6695 265.775
55.7332 264.056
55.7968 262.374
55.8605 260.728
55.9241 259.119
55.9875 257.547
56.0512 256.012
56.1148 254.514
56.1785 253.055
56.2421 251.634
56.3058 250.25
56.3694 248.906
56.4331 247.6
56.4965 246.333
56.5601 245.105
56.6238 243.916
56.6874 242.767
56.7511 241.658
56.8147 240.589
56.8784 239.561
56.942 238.573
57.0057 237.626
57.0691 236.72
57.1328 235.855
57.1964 235.031
57.2601 234.25
57.3237 233.51
57.3873 232.812
57.451 232.157
57.5146 231.545
57.5783 230.976
57.6417 230.45
57.7054 229.967
57.769 229.528
57.8327 229.133
57.8963 228.782
57.96 228.476
58.0236 228.214
58.0873 227.997
58.1507 227.826
58.2143 227.7
58.278 227.62
58.3416 227.585
58.4053 227.597
58.4689 227.655
58.5326 227.761
58.5962 227.913
58.6599 228.112
58.7233 228.359
58.7869 228.654
58.8506 228.997
58.9142 229.389
58.9779 229.829
59.0415 230.318
59.1052 230.856
59.1688 231.443
59.2325 232.08
59.2959 232.767
59.3595 233.504
59.4232 234.291
59.4868 235.13
59.5505 236.019
59.6141 236.96
59.6778 237.952
59.7414 238.995
59.8049 240.091
59.8685 241.238
59.9322 242.439
59.9958 243.691
60.0595 244.998
60.1231 246.356
60.1867 247.768
60.2504 249.234
60.314 250.752
60.3775 252.326
60.4411 253.953
60.5048 255.635
60.5684 257.37
60.6321 259.161
60.6957 261.006
60.7594 262.907
60.823 264.863
60.8867 266.873
60.9501 268.939
61.0137 271.061
61.0774 273.239
61.141 275.472
61.2047 277.761
61.2683 280.105
61.332 282.505
61.3956 284.962
61.459 287.475
61.5227 290.045
61.5863 292.669
61.65 295.35
61.7136 298.087
61.7773 300.881
61.8409 303.73
61.9046 306.636
61.9682 309.597
62.0317 312.614
62.0953 315.688
62.1589 318.816
62.2226 322.001
62.2862 325.24
62.3499 328.535
62.4135 331.885
62.4772 335.291
62.5408 338.75
62.6043 342.264
62.6679 345.833
62.7316 349.455
62.7952 353.131
62.8589 356.86
62.9225 360.643
62.9861 364.478
63.0498 368.365
63.1132 372.305
63.1769 376.296
63.2405 380.337
63.3042 384.431
63.3678 388.574
63.4315 392.766
63.4951 397.008
63.5588 401.3
63.6224 405.638
63.6858 410.025
63.7495 414.459
63.8131 418.939
63.8768 423.465
63.9404 428.036
64.0041 432.652
64.0677 437.311
64.1314 442.013
64.195 446.758
64.2584 451.545
64.3221 456.371
64.3857 461.239
64.4494 466.144
64.513 471.09
64.5767 476.071
64.6403 481.089
64.704 486.143
64.7674 491.231
64.8311 496.354
64.8947 501.51
64.9583 506.696
65.022 511.914
65.0856 517.162
65.1493 522.437
65.2129 527.74
65.2766 533.069
65.34 538.424
65.4037 543.803
65.4673 549.205
65.531 554.629
65.5946 560.074
65.6582 565.538
65.7219 571.02
65.7855 576.518
65.849 582.031
65.9126 587.561
65.9763 593.104
66.0399 598.657
66.1036 604.221
66.1672 609.794
66.2309 615.373
66.2945 620.961
66.3582 626.553
66.4216 632.148
66.4852 637.745
66.5489 643.343
66.6125 648.939
66.6762 654.534
66.7398 660.126
66.8035 665.71
66.8671 671.29
66.9308 676.861
66.9942 682.421
67.0578 687.97
67.1215 693.506
67.1851 699.029
67.2488 704.535
67.3124 710.024
67.3761 715.494
67.4397 720.943
67.5032 726.371
67.5668 731.774
67.6304 737.152
67.6941 742.503
67.7577 747.827
67.8214 753.12
67.885 758.382
67.9487 763.61
68.0123 768.803
68.0758 773.961
68.1394 779.081
68.2031 784.161
68.2667 789.2
68.3304 794.197
68.394 799.151
68.4576 804.058
68.5213 808.918
68.5849 813.73
68.6484 818.491
68.712 823.201
68.7757 827.858
68.8393 832.458
68.903 837.005
68.9666 841.493
69.0303 845.922
69.0939 850.291
69.1573 854.598
69.221 858.841
69.2846 863.018
69.3483 867.131
69.4119 871.177
69.4756 875.152
69.5392 879.058
69.6029 882.892
69.6665 886.653
69.7299 890.341
69.7936 893.952
69.8572 897.487
69.9209 900.946
69.9845 904.323
70.0482 907.622
70.1118 910.838
70.1755 913.973
70.2391 917.024
70.3026 919.989
70.3662 922.871
70.4298 925.665
70.4935 928.371
70.5571 930.989
70.6208 933.516
70.6844 935.954
70.7481 938.3
70.8115 940.553
70.8752 942.713
70.9388 944.781
71.0025 946.752
71.0661 948.628
71.1298 950.408
71.1934 952.091
71.257 953.678
71.3207 955.165
71.3841 956.554
71.4478 957.844
71.5114 959.032
71.5751 960.122
71.6387 961.112
71.7024 961.998
71.766 962.786
71.8297 963.469
71.8933 964.051
71.9567 964.53
72.0204 964.907
72.084 965.179
72.1477 965.351
72.2113 965.417
72.275 965.38
72.3386 965.241
72.4023 964.996
72.4657 964.649
72.5293 964.197
72.593 963.644
72.6566 962.985
72.7203 962.223
72.7839 961.359
72.8476 960.392
72.9112 959.32
72.9749 958.147
73.0383 956.871
73.102 955.494
73.1656 954.015
73.2292 952.434
73.2929 950.754
73.3565 948.973
73.4202 947.092
73.4838 945.112
73.5475 943.033
73.6109 940.855
73.6746 938.581
73.7382 936.209
73.8019 933.741
73.8655 931.179
73.9292 928.519
73.9928 925.768
74.0564 922.922
74.1199 919.985
74.1835 916.955
74.2472 913.835
74.3108 910.626
74.3745 907.327
74.4381 903.943
74.5018 900.469
74.5654 896.91
74.6291 893.266
74.6925 889.54
74.7561 885.73
74.8198 881.84
74.8834 877.868
74.9471 873.818
75.0107 869.689
75.0744 865.483
75.138 861.203
75.2017 856.847
75.2651 852.419
75.3287 847.92
75.3924 843.349
75.456 838.71
75.5197 834.004
75.5833 829.231
75.647 824.392
75.7106 819.49
75.7741 814.526
75.8377 809.501
75.9014 804.417
75.965 799.273
76.0286 794.076
76.0923 788.822
76.1559 783.515
76.2196 778.155
76.2832 772.746
76.3467 767.286
76.4103 761.782
76.474 756.229
76.5376 750.632
76.6013 744.992
76.6649 739.312
76.7286 733.592
76.7922 727.833
76.8558 722.038
76.9193 716.207
76.9829 710.344
77.0466 704.448
77.1102 698.521
77.1739 692.566
77.2375 686.584
77.3012 680.576
77.3648 674.544
77.4282 668.488
77.4919 662.413
77.5555 656.315
77.6192 650.204
77.6828 644.074
77.7465 637.928
77.8101 631.77
77.8738 625.601
77.9374 619.421
78.0008 613.232
78.0645 607.035
78.1281 600.834
78.1918 594.628
78.2554 588.419
78.3191 582.209
78.3827 575.997
78.4464 569.789
78.51 563.583
78.5735 557.383
78.6371 551.188
78.7007 544.998
78.7644 538.818
78.828 532.649
78.8917 526.491
78.9553 520.344
79.019 514.212
79.0824 508.095
79.1461 501.996
79.2097 495.914
79.2734 489.85
79.337 483.808
79.4007 477.786
79.4643 471.788
79.5279 465.812
79.5916 459.861
79.655 453.939
79.7187 448.041
79.7823 442.173
79.846 436.334
79.9096 430.527
79.9733 424.75
80.0369 419.006
80.1006 413.295
80.1642 407.62
80.2276 401.979
80.2913 396.376
